File: BioGrapher/MachineReading/aa1.txt
Nov. 10, 2015   10:05:17
Linear Sweep Voltammetry
File: e:\10-11\ph17 mcf10a\acid\aa1.txt
Data Source:  Experiment
Instrument Model:  CHI1030C
Ref. Electrode:
Header:
Note:

Init E (V) = -1
Final E (V) = 1
Scan Rate (V/s) = 0.1
Sample Interval (V) = 0.001
Quiet Time (sec) = 2
Sensitivity (A/V) = 1e-7

Ep = 0.606V
ip = 2.992e-9A
Ah = 2.477e-9C

Potential/V, Current/A

-1.000, -4.169e-10
-0.993, -2.790e-10
-0.986, -2.220e-10
-0.979, -2.972e-10
-0.972, -3.597e-10
-0.965, -2.996e-10
-0.958, -2.058e-10
-0.951, -1.588e-10
-0.944, -2.323e-10
-0.937, -2.947e-10
-0.930, -2.648e-10
-0.923, -1.687e-10
-0.916, -1.299e-10
-0.909, -2.049e-10
-0.902, -2.771e-10
-0.895, -2.579e-10
-0.888, -1.760e-10
-0.881, -1.268e-10
-0.874, -2.016e-10
-0.867, -2.774e-10
-0.860, -2.483e-10
-0.853, -1.726e-10
-0.846, -1.850e-10
-0.839, -1.912e-10
-0.832, -2.570e-10
-0.825, -2.384e-10
-0.818, -1.447e-10
-0.811, -9.256e-11
-0.804, -1.620e-10
-0.797, -2.442e-10
-0.790, -2.212e-10
-0.783, -1.417e-10
-0.776, -8.392e-11
-0.769, -1.576e-10
-0.762, -2.366e-10
-0.755, -2.106e-10
-0.748, -1.243e-10
-0.741, -7.902e-11
-0.734, -1.441e-10
-0.727, -2.344e-10
-0.720, -2.352e-10
-0.713, -1.518e-10
-0.706, -9.523e-11
-0.699, -1.584e-10
-0.692, -2.311e-10
-0.685, -2.149e-10
-0.678, -1.233e-10
-0.671, -6.538e-11
-0.664, -1.299e-10
-0.657, -2.104e-10
-0.650, -2.002e-10
-0.643, -1.181e-10
-0.636, -6.245e-11
-0.629, -1.279e-10
-0.622, -2.047e-10
-0.615, -1.957e-10
-0.608, -1.077e-10
-0.601, -5.037e-11
-0.594, -1.032e-10
-0.587, -1.890e-10
-0.580, -1.800e-10
-0.573, -1.005e-10
-0.566, -3.605e-11
-0.559, -8.840e-11
-0.552, -1.733e-10
-0.545, -1.729e-10
-0.538, -9.082e-11
-0.531, -1.926e-11
-0.524, -6.298e-11
-0.517, -1.455e-10
-0.510, -1.484e-10
-0.503, -7.571e-11
-0.496, -1.387e-11
-0.489, -6.583e-11
-0.482, -1.596e-10
-0.475, -1.635e-10
-0.468, -8.671e-11
-0.461, -2.507e-11
-0.454, -6.260e-11
-0.447, -1.468e-10
-0.440, -1.492e-10
-0.433, -7.444e-11
-0.426, 5.071e-12
-0.419, -4.306e-11
-0.412, -1.401e-10
-0.405, -1.455e-10
-0.398, -6.807e-11
-0.391, 8.501e-12
-0.384, -3.178e-11
-0.377, -1.258e-10
-0.370, -1.398e-10
-0.363, -6.650e-11
-0.356, 3.192e-12
-0.349, -4.082e-11
-0.342, -1.272e-10
-0.335, -1.383e-10
-0.328, -6.013e-11
-0.321, 1.320e-11
-0.314, -1.687e-11
-0.307, -1.119e-10
-0.300, -1.262e-10
-0.293, -5.032e-11
-0.286, 2.596e-11
-0.279, -3.225e-12
-0.272, -8.700e-11
-0.265, -9.969e-11
-0.258, -2.597e-11
-0.251, 6.042e-11
-0.244, 2.760e-11
-0.237, -7.130e-11
-0.230, -9.901e-11
-0.223, -3.246e-11
-0.216, 6.080e-11
-0.209, 1.395e-11
-0.202, -9.360e-11
-0.195, -1.101e-10
-0.188, -2.893e-11
-0.181, 5.147e-11
-0.174, 1.315e-11
-0.167, -7.986e-11
-0.160, -9.431e-11
-0.153, -2.913e-11
-0.146, 4.439e-11
-0.139, 2.051e-11
-0.132, -7.377e-11
-0.125, -9.059e-11
-0.118, -2.335e-11
-0.111, 5.862e-11
-0.104, 3.651e-11
-0.097, -6.092e-11
-0.090, -8.804e-11
-0.083, -2.689e-11
-0.076, 5.351e-11
-0.069, 3.690e-11
-0.062, -5.248e-11
-0.055, -7.656e-11
-0.048, -1.167e-11
-0.041, 7.079e-11
-0.034, 5.201e-11
-0.027, -4.434e-11
-0.020, -7.794e-11
-0.013, -2.229e-11
-0.006, 6.243e-11
0.001, 5.279e-11
0.008, -3.649e-11
0.015, -7.795e-11
0.022, -2.337e-11
0.029, 6.272e-11
0.036, 5.357e-11
0.043, -3.463e-11
0.050, -6.990e-11
0.057, -1.651e-11
0.064, 7.175e-11
0.071, 6.446e-11
0.078, -2.904e-11
0.085, -6.755e-11
0.092, -1.288e-11
0.099, 7.047e-11
0.106, 6.642e-11
0.113, -2.472e-11
0.120, -6.736e-11
0.127, -1.593e-11
0.134, 7.066e-11
0.141, 7.083e-11
0.148, -2.041e-11
0.155, -6.403e-11
0.162, -1.486e-11
0.169, 7.458e-11
0.176, 7.750e-11
0.183, -1.256e-11
0.190, -5.667e-11
0.197, -8.873e-12
0.204, 8.135e-11
0.211, 8.761e-11
0.218, -6.874e-13
0.225, -4.706e-11
0.232, -3.366e-13
0.239, 9.194e-11
0.246, 1.017e-10
0.253, 1.502e-11
0.260, -3.115e-11
0.267, 1.635e-11
0.274, 1.115e-10
0.281, 1.278e-10
0.288, 4.152e-11
0.295, -2.195e-12
0.302, 4.786e-11
0.309, 1.466e-10
0.316, 1.688e-10
0.323, 8.767e-11
0.330, 4.326e-11
0.337, 9.489e-11
0.344, 1.959e-10
0.351, 2.265e-10
0.358, 1.495e-10
0.365, 1.063e-10
0.372, 1.622e-10
0.379, 2.727e-10
0.386, 3.152e-10
0.393, 2.545e-10
0.400, 2.271e-10
0.407, 3.007e-10
0.414, 4.503e-10
0.421, 5.360e-10
0.428, 5.245e-10
0.435, 5.564e-10
0.442, 6.935e-10
0.449, 8.822e-10
0.456, 1.012e-9
0.463, 1.022e-9
0.470, 1.051e-9
0.477, 1.167e-9
0.484, 1.338e-9
0.491, 1.456e-9
0.498, 1.492e-9
0.505, 1.553e-9
0.512, 1.724e-9
0.519, 1.950e-9
0.526, 2.111e-9
0.533, 2.161e-9
0.540, 2.221e-9
0.547, 2.381e-9
0.554, 2.607e-9
0.561, 2.767e-9
0.568, 2.818e-9
0.575, 2.896e-9
0.582, 3.118e-9
0.589, 3.379e-9
0.596, 3.577e-9
0.603, 3.646e-9
0.610, 3.604e-9
0.617, 3.540e-9
0.624, 3.550e-9
0.631, 3.600e-9
0.638, 3.531e-9
0.645, 3.488e-9
0.652, 3.537e-9
0.659, 3.636e-9
0.666, 3.683e-9
0.673, 3.614e-9
0.680, 3.579e-9
0.687, 3.628e-9
0.694, 3.747e-9
0.701, 3.804e-9
0.708, 3.746e-9
0.715, 3.715e-9
0.722, 3.769e-9
0.729, 3.901e-9
0.736, 3.969e-9
0.743, 3.899e-9
0.750, 3.847e-9
0.757, 3.914e-9
0.764, 4.028e-9
0.771, 4.081e-9
0.778, 4.035e-9
0.785, 3.998e-9
0.792, 4.038e-9
0.799, 4.129e-9
0.806, 4.194e-9
0.813, 4.150e-9
0.820, 4.086e-9
0.827, 4.176e-9
0.834, 4.342e-9
0.841, 4.461e-9
0.848, 4.464e-9
0.855, 4.356e-9
0.862, 4.388e-9
0.869, 4.528e-9
0.876, 4.625e-9
0.883, 4.603e-9
0.890, 4.587e-9
0.897, 4.625e-9
0.904, 4.726e-9
0.911, 4.816e-9
0.918, 4.786e-9
0.925, 4.736e-9
0.932, 4.790e-9
0.939, 4.918e-9
0.946, 5.003e-9
0.953, 4.985e-9
0.960, 4.950e-9
0.967, 5.020e-9
0.974, 5.160e-9
0.981, 5.255e-9
0.988, 5.306e-9
0.995, 5.278e-9
0.999, 5.389e-9