File: BioGrapher/MachineReading/aa3.txt
Nov. 10, 2015   10:06:34
Linear Sweep Voltammetry
File: e:\10-11\ph17 mcf10a\acid\aa3.txt
Data Source:  Experiment
Instrument Model:  CHI1030C
Ref. Electrode:
Header:
Note:

Init E (V) = -1
Final E (V) = 1
Scan Rate (V/s) = 0.1
Sample Interval (V) = 0.001
Quiet Time (sec) = 2
Sensitivity (A/V) = 1e-7

Potential/V, Current/A

-1.000, -1.378e-9
-0.993, -9.644e-10
-0.986, -7.982e-10
-0.979, -8.875e-10
-0.972, -6.551e-10
-0.965, -7.202e-10
-0.958, -6.462e-10
-0.951, -6.790e-10
-0.944, -7.579e-10
-0.937, -8.201e-10
-0.930, -6.678e-10
-0.923, -5.321e-10
-0.916, -6.618e-10
-0.909, -6.042e-10
-0.902, -5.373e-10
-0.895, -5.628e-10
-0.888, -6.113e-10
-0.881, -5.282e-10
-0.874, -6.229e-10
-0.867, -5.635e-10
-0.860, -4.576e-10
-0.853, -4.367e-10
-0.846, -5.991e-10
-0.839, -5.867e-10
-0.832, -5.065e-10
-0.825, -4.022e-10
-0.818, -5.541e-10
-0.811, -5.759e-10
-0.804, -5.252e-10
-0.797, -4.949e-10
-0.790, -3.966e-10
-0.783, -4.844e-10
-0.776, -4.886e-10
-0.769, -5.394e-10
-0.762, -4.935e-10
-0.755, -4.084e-10
-0.748, -3.994e-10
-0.741, -5.062e-10
-0.734, -4.878e-10
-0.727, -4.129e-10
-0.720, -3.335e-10
-0.713, -4.353e-10
-0.706, -5.060e-10
-0.699, -4.802e-10
-0.692, -4.052e-10
-0.685, -3.230e-10
-0.678, -3.555e-10
-0.671, -4.533e-10
-0.664, -4.474e-10
-0.657, -3.787e-10
-0.650, -3.228e-10
-0.643, -3.505e-10
-0.636, -4.340e-10
-0.629, -4.195e-10
-0.622, -3.418e-10
-0.615, -2.677e-10
-0.608, -2.996e-10
-0.601, -3.964e-10
-0.594, -4.033e-10
-0.587, -3.274e-10
-0.580, -2.543e-10
-0.573, -2.995e-10
-0.566, -3.957e-10
-0.559, -3.831e-10
-0.552, -3.078e-10
-0.545, -2.341e-10
-0.538, -2.477e-10
-0.531, -3.374e-10
-0.524, -3.538e-10
-0.517, -2.869e-10
-0.510, -2.121e-10
-0.503, -2.526e-10
-0.496, -3.317e-10
-0.489, -3.485e-10
-0.482, -2.754e-10
-0.475, -1.939e-10
-0.468, -2.268e-10
-0.461, -3.241e-10
-0.454, -3.358e-10
-0.447, -2.639e-10
-0.440, -1.855e-10
-0.433, -2.225e-10
-0.426, -3.124e-10
-0.419, -3.281e-10
-0.412, -2.593e-10
-0.405, -1.817e-10
-0.398, -2.184e-10
-0.391, -3.095e-10
-0.384, -3.212e-10
-0.377, -2.484e-10
-0.370, -1.689e-10
-0.363, -1.972e-10
-0.356, -2.976e-10
-0.349, -3.136e-10
-0.342, -2.411e-10
-0.335, -1.678e-10
-0.328, -1.993e-10
-0.321, -2.862e-10
-0.314, -3.109e-10
-0.307, -2.445e-10
-0.300, -1.631e-10
-0.293, -1.943e-10
-0.286, -2.937e-10
-0.279, -3.153e-10
-0.272, -2.493e-10
-0.265, -1.579e-10
-0.258, -1.941e-10
-0.251, -2.781e-10
-0.244, -3.028e-10
-0.237, -2.338e-10
-0.230, -1.518e-10
-0.223, -1.873e-10
-0.216, -2.877e-10
-0.209, -3.016e-10
-0.202, -2.384e-10
-0.195, -1.586e-10
-0.188, -1.860e-10
-0.181, -2.769e-10
-0.174, -2.972e-10
-0.167, -2.318e-10
-0.160, -1.502e-10
-0.153, -1.783e-10
-0.146, -2.718e-10
-0.139, -2.934e-10
-0.132, -2.303e-10
-0.125, -1.544e-10
-0.118, -1.780e-10
-0.111, -2.711e-10
-0.104, -2.928e-10
-0.097, -2.312e-10
-0.090, -1.553e-10
-0.083, -1.724e-10
-0.076, -2.760e-10
-0.069, -3.058e-10
-0.062, -2.448e-10
-0.055, -1.644e-10
-0.048, -1.881e-10
-0.041, -2.866e-10
-0.034, -3.133e-10
-0.027, -2.537e-10
-0.020, -1.746e-10
-0.013, -1.994e-10
-0.006, -2.940e-10
0.001, -3.212e-10
0.008, -2.677e-10
0.015, -1.898e-10
0.022, -2.095e-10
0.029, -3.144e-10
0.036, -3.450e-10
0.043, -2.840e-10
0.050, -2.009e-10
0.057, -2.239e-10
0.064, -3.195e-10
0.071, -3.493e-10
0.078, -2.921e-10
0.085, -2.040e-10
0.092, -2.216e-10
0.099, -3.153e-10
0.106, -3.406e-10
0.113, -2.816e-10
0.120, -1.977e-10
0.127, -2.126e-10
0.134, -3.066e-10
0.141, -3.343e-10
0.148, -2.722e-10
0.155, -1.824e-10
0.162, -1.912e-10
0.169, -2.762e-10
0.176, -2.969e-10
0.183, -2.237e-10
0.190, -1.230e-10
0.197, -1.184e-10
0.204, -1.942e-10
0.211, -2.102e-10
0.218, -1.295e-10
0.225, -2.162e-11
0.232, -7.897e-12
0.239, -7.184e-11
0.246, -7.481e-11
0.253, 1.836e-11
0.260, 1.458e-10
0.267, 1.770e-10
0.274, 1.311e-10
0.281, 1.482e-10
0.288, 2.618e-10
0.295, 4.097e-10
0.302, 4.671e-10
0.309, 4.436e-10
0.316, 4.867e-10
0.323, 6.267e-10
0.330, 7.998e-10
0.337, 8.874e-10
0.344, 8.979e-10
0.351, 9.703e-10
0.358, 1.148e-9
0.365, 1.363e-9
0.372, 1.492e-9
0.379, 1.553e-9
0.386, 1.687e-9
0.393, 1.921e-9
0.400, 2.208e-9
0.407, 2.413e-9
0.414, 2.536e-9
0.421, 2.727e-9
0.428, 3.019e-9
0.435, 3.337e-9
0.442, 3.572e-9
0.449, 3.722e-9
0.456, 3.927e-9
0.463, 4.228e-9
0.470, 4.572e-9
0.477, 4.812e-9
0.484, 4.969e-9
0.491, 5.181e-9
0.498, 5.481e-9
0.505, 5.818e-9
0.512, 6.053e-9
0.519, 6.204e-9
0.526, 6.405e-9
0.533, 6.711e-9
0.540, 7.038e-9
0.547, 7.285e-9
0.554, 7.448e-9
0.561, 7.659e-9
0.568, 7.963e-9
0.575, 8.315e-9
0.582, 8.563e-9
0.589, 8.740e-9
0.596, 8.958e-9
0.603, 9.254e-9
0.610, 9.617e-9
0.617, 9.898e-9
0.624, 1.009e-8
0.631, 1.033e-8
0.638, 1.068e-8
0.645, 1.107e-8
0.652, 1.138e-8
0.659, 1.162e-8
0.666, 1.191e-8
0.673, 1.231e-8
0.680, 1.277e-8
0.687, 1.313e-8
0.694, 1.341e-8
0.701, 1.376e-8
0.708, 1.419e-8
0.715, 1.468e-8
0.722, 1.509e-8
0.729, 1.541e-8
0.736, 1.576e-8
0.743, 1.622e-8
0.750, 1.674e-8
0.757, 1.718e-8
0.764, 1.751e-8
0.771, 1.790e-8
0.778, 1.838e-8
0.785, 1.888e-8
0.792, 1.929e-8
0.799, 1.961e-8
0.806, 1.998e-8
0.813, 2.043e-8
0.820, 2.094e-8
0.827, 2.134e-8
0.834, 2.167e-8
0.841, 2.205e-8
0.848, 2.248e-8
0.855, 2.298e-8
0.862, 2.338e-8
0.869, 2.370e-8
0.876, 2.401e-8
0.883, 2.444e-8
0.890, 2.486e-8
0.897, 2.519e-8
0.904, 2.537e-8
0.911, 2.558e-8
0.918, 2.590e-8
0.925, 2.619e-8
0.932, 2.639e-8
0.939, 2.643e-8
0.946, 2.655e-8
0.953, 2.663e-8
0.960, 2.685e-8
0.967, 2.695e-8
0.974, 2.672e-8
0.981, 2.487e-8
0.988, 2.433e-8
0.995, 2.411e-8
0.999, 2.390e-8