File: BioGrapher/MachineReading/aa4.txt
Nov. 10, 2015   10:07:12
Linear Sweep Voltammetry
File: e:\10-11\ph17 mcf10a\acid\aa4.txt
Data Source:  Experiment
Instrument Model:  CHI1030C
Ref. Electrode:
Header:
Note:

Init E (V) = -1
Final E (V) = 1
Scan Rate (V/s) = 0.1
Sample Interval (V) = 0.001
Quiet Time (sec) = 2
Sensitivity (A/V) = 1e-7

Potential/V, Current/A

-1.000, -6.291e-9
-0.993, -5.309e-9
-0.986, -6.632e-9
-0.979, -4.063e-9
-0.972, -1.997e-9
-0.965, -2.128e-9
-0.958, -1.071e-9
-0.951, -1.903e-9
-0.944, -1.136e-9
-0.937, -1.527e-9
-0.930, -1.238e-9
-0.923, -1.315e-9
-0.916, -1.231e-9
-0.909, -1.529e-9
-0.902, -2.702e-9
-0.895, -4.174e-9
-0.888, -1.052e-8
-0.881, -6.160e-9
-0.874, -1.321e-8
-0.867, -3.680e-9
-0.860, -1.263e-8
-0.853, -3.744e-9
-0.846, -6.289e-9
-0.839, -1.259e-8
-0.832, -4.207e-9
-0.825, -5.519e-9
-0.818, -9.247e-9
-0.811, -1.478e-8
-0.804, -1.385e-8
-0.797, -1.500e-8
-0.790, -3.121e-9
-0.783, -2.327e-9
-0.776, -1.876e-9
-0.769, -1.965e-9
-0.762, -2.326e-9
-0.755, -2.477e-9
-0.748, -2.882e-9
-0.741, -4.780e-9
-0.734, -6.949e-9
-0.727, -1.058e-8
-0.720, -1.184e-8
-0.713, -5.947e-9
-0.706, -1.010e-8
-0.699, -1.717e-8
-0.692, -6.131e-9
-0.685, -6.428e-9
-0.678, -9.236e-9
-0.671, -1.107e-8
-0.664, -1.131e-8
-0.657, -1.051e-8
-0.650, -1.135e-8
-0.643, -7.597e-9
-0.636, -7.216e-9
-0.629, -8.514e-9
-0.622, -7.005e-9
-0.615, -9.161e-9
-0.608, -1.044e-8
-0.601, -8.778e-9
-0.594, -9.368e-9
-0.587, -1.021e-8
-0.580, -9.000e-9
-0.573, -9.801e-9
-0.566, -7.788e-9
-0.559, -8.688e-9
-0.552, -8.586e-9
-0.545, -8.476e-9
-0.538, -7.566e-9
-0.531, -6.697e-9
-0.524, -6.863e-9
-0.517, -6.786e-9
-0.510, -6.611e-9
-0.503, -7.250e-9
-0.496, -6.526e-9
-0.489, -7.440e-9
-0.482, -5.227e-9
-0.475, -5.910e-9
-0.468, -4.973e-9
-0.461, -5.267e-9
-0.454, -4.494e-9
-0.447, -4.801e-9
-0.440, -4.454e-9
-0.433, -3.976e-9
-0.426, -3.549e-9
-0.419, -3.711e-9
-0.412, -3.531e-9
-0.405, -3.479e-9
-0.398, -3.411e-9
-0.391, -3.393e-9
-0.384, -3.042e-9
-0.377, -2.886e-9
-0.370, -2.737e-9
-0.363, -2.594e-9
-0.356, -2.485e-9
-0.349, -2.305e-9
-0.342, -2.324e-9
-0.335, -2.354e-9
-0.328, -2.103e-9
-0.321, -1.899e-9
-0.314, -1.799e-9
-0.307, -1.880e-9
-0.300, -1.801e-9
-0.293, -1.582e-9
-0.286, -1.410e-9
-0.279, -1.369e-9
-0.272, -1.418e-9
-0.265, -1.396e-9
-0.258, -1.285e-9
-0.251, -1.146e-9
-0.244, -1.116e-9
-0.237, -1.137e-9
-0.230, -1.179e-9
-0.223, -1.113e-9
-0.216, -1.012e-9
-0.209, -9.788e-10
-0.202, -1.055e-9
-0.195, -1.092e-9
-0.188, -1.038e-9
-0.181, -9.273e-10
-0.174, -8.909e-10
-0.167, -9.468e-10
-0.160, -9.995e-10
-0.153, -9.474e-10
-0.146, -8.377e-10
-0.139, -8.184e-10
-0.132, -8.756e-10
-0.125, -9.316e-10
-0.118, -8.882e-10
-0.111, -7.923e-10
-0.104, -7.546e-10
-0.097, -8.239e-10
-0.090, -9.150e-10
-0.083, -8.753e-10
-0.076, -7.706e-10
-0.069, -7.194e-10
-0.062, -7.708e-10
-0.055, -8.366e-10
-0.048, -8.050e-10
-0.041, -6.992e-10
-0.034, -6.625e-10
-0.027, -7.262e-10
-0.020, -7.961e-10
-0.013, -7.705e-10
-0.006, -6.761e-10
0.001, -6.244e-10
0.008, -6.929e-10
0.015, -7.480e-10
0.022, -7.177e-10
0.029, -6.084e-10
0.036, -5.460e-10
0.043, -6.036e-10
0.050, -6.626e-10
0.057, -6.200e-10
0.064, -5.152e-10
0.071, -4.449e-10
0.078, -5.001e-10
0.085, -5.604e-10
0.092, -5.237e-10
0.099, -4.200e-10
0.106, -3.480e-10
0.113, -3.937e-10
0.120, -4.536e-10
0.127, -4.221e-10
0.134, -3.173e-10
0.141, -2.404e-10
0.148, -2.868e-10
0.155, -3.497e-10
0.162, -3.202e-10
0.169, -2.189e-10
0.176, -1.408e-10
0.183, -1.855e-10
0.190, -2.514e-10
0.197, -2.236e-10
0.204, -1.239e-10
0.211, -4.417e-11
0.218, -8.513e-11
0.225, -1.501e-10
0.232, -1.271e-10
0.239, -2.657e-11
0.246, 5.697e-11
0.253, 2.385e-11
0.260, -3.714e-11
0.267, -7.609e-12
0.274, 9.950e-11
0.281, 1.924e-10
0.288, 1.721e-10
0.295, 1.210e-10
0.302, 1.639e-10
0.309, 2.857e-10
0.316, 4.031e-10
0.323, 4.013e-10
0.330, 3.720e-10
0.337, 4.307e-10
0.344, 5.741e-10
0.351, 7.085e-10
0.358, 7.346e-10
0.365, 7.256e-10
0.372, 8.023e-10
0.379, 9.648e-10
0.386, 1.130e-9
0.393, 1.183e-9
0.400, 1.203e-9
0.407, 1.319e-9
0.414, 1.519e-9
0.421, 1.738e-9
0.428, 1.856e-9
0.435, 1.935e-9
0.442, 2.114e-9
0.449, 2.370e-9
0.456, 2.648e-9
0.463, 2.806e-9
0.470, 2.943e-9
0.477, 3.172e-9
0.484, 3.513e-9
0.491, 3.886e-9
0.498, 4.166e-9
0.505, 4.435e-9
0.512, 4.802e-9
0.519, 5.259e-9
0.526, 5.664e-9
0.533, 5.905e-9
0.540, 6.087e-9
0.547, 6.357e-9
0.554, 6.796e-9
0.561, 7.280e-9
0.568, 7.656e-9
0.575, 7.963e-9
0.582, 8.316e-9
0.589, 8.792e-9
0.596, 9.228e-9
0.603, 9.572e-9
0.610, 9.885e-9
0.617, 1.027e-8
0.624, 1.078e-8
0.631, 1.128e-8
0.638, 1.171e-8
0.645, 1.207e-8
0.652, 1.250e-8
0.659, 1.312e-8
0.666, 1.371e-8
0.673, 1.424e-8
0.680, 1.474e-8
0.687, 1.531e-8
0.694, 1.596e-8
0.701, 1.662e-8
0.708, 1.720e-8
0.715, 1.770e-8
0.722, 1.827e-8
0.729, 1.889e-8
0.736, 1.951e-8
0.743, 2.002e-8
0.750, 2.047e-8
0.757, 2.097e-8
0.764, 2.156e-8
0.771, 2.219e-8
0.778, 2.274e-8
0.785, 2.323e-8
0.792, 2.377e-8
0.799, 2.442e-8
0.806, 2.507e-8
0.813, 2.562e-8
0.820, 2.607e-8
0.827, 2.661e-8
0.834, 2.724e-8
0.841, 2.787e-8
0.848, 2.840e-8
0.855, 2.885e-8
0.862, 2.936e-8
0.869, 2.999e-8
0.876, 3.062e-8
0.883, 3.111e-8
0.890, 3.156e-8
0.897, 3.195e-8
0.904, 3.246e-8
0.911, 3.299e-8
0.918, 3.337e-8
0.925, 3.370e-8
0.932, 3.409e-8
0.939, 3.451e-8
0.946, 3.494e-8
0.953, 3.529e-8
0.960, 3.552e-8
0.967, 3.578e-8
0.974, 3.611e-8
0.981, 3.642e-8
0.988, 3.659e-8
0.995, 3.673e-8
0.999, 3.683e-8