File: BioGrapher/MachineReading/aa5.txt
Nov. 10, 2015   10:07:50
Linear Sweep Voltammetry
File: e:\10-11\ph17 mcf10a\acid\aa5.txt
Data Source:  Experiment
Instrument Model:  CHI1030C
Ref. Electrode:
Header:
Note:

Init E (V) = -1
Final E (V) = 1
Scan Rate (V/s) = 0.1
Sample Interval (V) = 0.001
Quiet Time (sec) = 2
Sensitivity (A/V) = 1e-7

Potential/V, Current/A

-1.000, -1.361e-8
-0.993, -1.024e-8
-0.986, -5.065e-9
-0.979, -2.103e-8
-0.972, -5.765e-9
-0.965, -1.238e-8
-0.958, -6.347e-9
-0.951, -6.085e-9
-0.944, -1.452e-8
-0.937, -6.914e-9
-0.930, -2.709e-9
-0.923, -4.974e-9
-0.916, -7.196e-9
-0.909, -1.743e-8
-0.902, -8.933e-9
-0.895, -3.705e-9
-0.888, -6.182e-9
-0.881, -9.572e-9
-0.874, -1.072e-8
-0.867, -1.113e-8
-0.860, -2.238e-8
-0.853, -3.609e-9
-0.846, -2.675e-9
-0.839, -2.620e-9
-0.832, -3.022e-9
-0.825, -3.406e-9
-0.818, -3.247e-9
-0.811, -3.584e-9
-0.804, -3.587e-9
-0.797, -3.394e-9
-0.790, -3.643e-9
-0.783, -3.459e-9
-0.776, -3.157e-9
-0.769, -3.728e-9
-0.762, -3.739e-9
-0.755, -4.026e-9
-0.748, -3.831e-9
-0.741, -4.424e-9
-0.734, -4.007e-9
-0.727, -4.814e-9
-0.720, -5.128e-9
-0.713, -5.007e-9
-0.706, -5.189e-9
-0.699, -4.729e-9
-0.692, -5.696e-9
-0.685, -6.002e-9
-0.678, -6.069e-9
-0.671, -5.728e-9
-0.664, -6.642e-9
-0.657, -7.282e-9
-0.650, -8.297e-9
-0.643, -9.450e-9
-0.636, -8.059e-9
-0.629, -8.478e-9
-0.622, -8.273e-9
-0.615, -7.273e-9
-0.608, -7.566e-9
-0.601, -7.401e-9
-0.594, -7.816e-9
-0.587, -7.909e-9
-0.580, -7.860e-9
-0.573, -5.464e-9
-0.566, -4.512e-9
-0.559, -4.042e-9
-0.552, -4.321e-9
-0.545, -3.784e-9
-0.538, -3.709e-9
-0.531, -4.432e-9
-0.524, -4.404e-9
-0.517, -4.772e-9
-0.510, -4.400e-9
-0.503, -4.323e-9
-0.496, -3.743e-9
-0.489, -3.557e-9
-0.482, -3.879e-9
-0.475, -3.568e-9
-0.468, -2.823e-9
-0.461, -2.612e-9
-0.454, -2.625e-9
-0.447, -2.855e-9
-0.440, -2.636e-9
-0.433, -2.637e-9
-0.426, -2.170e-9
-0.419, -2.215e-9
-0.412, -2.196e-9
-0.405, -2.022e-9
-0.398, -1.812e-9
-0.391, -1.648e-9
-0.384, -1.702e-9
-0.377, -1.726e-9
-0.370, -1.555e-9
-0.363, -1.413e-9
-0.356, -1.316e-9
-0.349, -1.235e-9
-0.342, -1.261e-9
-0.335, -1.198e-9
-0.328, -1.065e-9
-0.321, -8.812e-10
-0.314, -8.597e-10
-0.307, -8.554e-10
-0.300, -8.189e-10
-0.293, -7.258e-10
-0.286, -7.000e-10
-0.279, -7.057e-10
-0.272, -7.692e-10
-0.265, -7.688e-10
-0.258, -6.550e-10
-0.251, -5.356e-10
-0.244, -5.717e-10
-0.237, -6.581e-10
-0.230, -6.772e-10
-0.223, -5.789e-10
-0.216, -5.026e-10
-0.209, -5.328e-10
-0.202, -6.466e-10
-0.195, -6.584e-10
-0.188, -6.028e-10
-0.181, -5.414e-10
-0.174, -5.747e-10
-0.167, -6.651e-10
-0.160, -6.757e-10
-0.153, -6.228e-10
-0.146, -5.216e-10
-0.139, -5.633e-10
-0.132, -6.520e-10
-0.125, -6.510e-10
-0.118, -5.451e-10
-0.111, -4.482e-10
-0.104, -4.556e-10
-0.097, -5.673e-10
-0.090, -5.754e-10
-0.083, -5.259e-10
-0.076, -4.710e-10
-0.069, -4.791e-10
-0.062, -5.651e-10
-0.055, -5.787e-10
-0.048, -4.984e-10
-0.041, -4.400e-10
-0.034, -4.299e-10
-0.027, -4.733e-10
-0.020, -4.911e-10
-0.013, -4.214e-10
-0.006, -3.370e-10
0.001, -3.600e-10
0.008, -4.424e-10
0.015, -4.589e-10
0.022, -3.891e-10
0.029, -2.939e-10
0.036, -3.103e-10
0.043, -3.908e-10
0.050, -4.059e-10
0.057, -3.325e-10
0.064, -2.450e-10
0.071, -2.519e-10
0.078, -3.371e-10
0.085, -3.604e-10
0.092, -2.899e-10
0.099, -2.003e-10
0.106, -2.065e-10
0.113, -2.960e-10
0.120, -3.163e-10
0.127, -2.484e-10
0.134, -1.562e-10
0.141, -1.612e-10
0.148, -2.469e-10
0.155, -2.679e-10
0.162, -2.002e-10
0.169, -1.084e-10
0.176, -1.080e-10
0.183, -1.910e-10
0.190, -2.133e-10
0.197, -1.407e-10
0.204, -4.316e-11
0.211, -4.034e-11
0.218, -1.191e-10
0.225, -1.373e-10
0.232, -5.964e-11
0.239, 4.746e-11
0.246, 5.903e-11
0.253, -8.648e-12
0.260, -1.908e-11
0.267, 6.525e-11
0.274, 1.843e-10
0.281, 2.139e-10
0.288, 1.593e-10
0.295, 1.692e-10
0.302, 2.762e-10
0.309, 4.204e-10
0.316, 4.752e-10
0.323, 4.472e-10
0.330, 4.766e-10
0.337, 6.001e-10
0.344, 7.669e-10
0.351, 8.364e-10
0.358, 8.288e-10
0.365, 8.829e-10
0.372, 1.025e-9
0.379, 1.199e-9
0.386, 1.299e-9
0.393, 1.313e-9
0.400, 1.374e-9
0.407, 1.545e-9
0.414, 1.767e-9
0.421, 1.892e-9
0.428, 1.960e-9
0.435, 2.094e-9
0.442, 2.327e-9
0.449, 2.617e-9
0.456, 2.834e-9
0.463, 2.988e-9
0.470, 3.197e-9
0.477, 3.410e-9
0.484, 3.759e-9
0.491, 4.068e-9
0.498, 4.281e-9
0.505, 4.585e-9
0.512, 4.974e-9
0.519, 5.404e-9
0.526, 5.803e-9
0.533, 6.107e-9
0.540, 6.467e-9
0.547, 6.929e-9
0.554, 7.485e-9
0.561, 8.008e-9
0.568, 8.423e-9
0.575, 8.852e-9
0.582, 9.372e-9
0.589, 9.929e-9
0.596, 1.043e-8
0.603, 1.082e-8
0.610, 1.118e-8
0.617, 1.169e-8
0.624, 1.233e-8
0.631, 1.286e-8
0.638, 1.327e-8
0.645, 1.374e-8
0.652, 1.429e-8
0.659, 1.491e-8
0.666, 1.546e-8
0.673, 1.589e-8
0.680, 1.639e-8
0.687, 1.699e-8
0.694, 1.764e-8
0.701, 1.823e-8
0.708, 1.873e-8
0.715, 1.925e-8
0.722, 1.989e-8
0.729, 2.058e-8
0.736, 2.118e-8
0.743, 2.168e-8
0.750, 2.219e-8
0.757, 2.277e-8
0.764, 2.343e-8
0.771, 2.401e-8
0.778, 2.448e-8
0.785, 2.498e-8
0.792, 2.559e-8
0.799, 2.623e-8
0.806, 2.682e-8
0.813, 2.730e-8
0.820, 2.778e-8
0.827, 2.838e-8
0.834, 2.904e-8
0.841, 2.962e-8
0.848, 3.010e-8
0.855, 3.059e-8
0.862, 3.116e-8
0.869, 3.182e-8
0.876, 3.239e-8
0.883, 3.282e-8
0.890, 3.328e-8
0.897, 3.386e-8
0.904, 3.445e-8
0.911, 3.495e-8
0.918, 3.524e-8
0.925, 3.574e-8
0.932, 3.621e-8
0.939, 3.677e-8
0.946, 3.721e-8
0.953, 3.757e-8
0.960, 3.791e-8
0.967, 3.830e-8
0.974, 3.875e-8
0.981, 3.913e-8
0.988, 3.936e-8
0.995, 3.963e-8
0.999, 3.991e-8